"0min∏¥≤‚ - RawData"
"≤®≥§(nm)","Œ¸ ’÷µ"
250.00,2.39573
250.50,2.30664
251.00,2.14798
251.50,2.25675
252.00,2.80086
252.50,3.26372
253.00,2.67601
253.50,2.13187
254.00,2.23538
254.50,2.26604
255.00,2.31628
255.50,2.18107
256.00,2.15268
256.50,2.25655
257.00,2.19767
257.50,2.17798
258.00,2.08717
258.50,2.07390
259.00,2.03388
259.50,2.08705
260.00,2.24592
260.50,2.31910
261.00,2.10404
261.50,2.09183
262.00,2.05283
262.50,2.31592
263.00,2.34083
263.50,2.35427
264.00,2.26907
264.50,2.18619
265.00,2.21563
265.50,2.19465
266.00,2.24152
266.50,2.20987
267.00,2.16515
267.50,2.22604
268.00,2.29871
268.50,2.37044
269.00,2.26179
269.50,2.21633
270.00,2.23513
270.50,2.22028
271.00,2.23040
271.50,2.28726
272.00,2.29002
272.50,2.28229
273.00,2.24411
273.50,2.21776
274.00,2.17270
274.50,2.12274
275.00,2.08252
275.50,2.07974
276.00,2.05637
276.50,2.05222
277.00,2.03329
277.50,2.04228
278.00,2.05097
278.50,2.02408
279.00,1.96821
279.50,1.92298
280.00,1.91253
280.50,1.91024
281.00,1.88945
281.50,1.88101
282.00,1.85723
282.50,1.84949
283.00,1.81657
283.50,1.79780
284.00,1.78153
284.50,1.75748
285.00,1.72637
285.50,1.70978
286.00,1.69881
286.50,1.69308
287.00,1.67740
287.50,1.66433
288.00,1.65593
288.50,1.64558
289.00,1.63242
289.50,1.61380
290.00,1.59565
290.50,1.57853
291.00,1.56380
291.50,1.55204
292.00,1.54297
292.50,1.53129
293.00,1.51749
293.50,1.50125
294.00,1.49090
294.50,1.47921
295.00,1.47501
295.50,1.46495
296.00,1.45708
296.50,1.44774
297.00,1.44379
297.50,1.43814
298.00,1.43320
298.50,1.43129
299.00,1.42818
299.50,1.43002
300.00,1.42777
300.50,1.43713
301.00,1.44109
301.50,1.44846
302.00,1.45501
302.50,1.46602
303.00,1.47922
303.50,1.49382
304.00,1.51213
304.50,1.53588
305.00,1.56105
305.50,1.59128
306.00,1.61533
306.50,1.64239
307.00,1.66441
307.50,1.69467
308.00,1.72833
308.50,1.75774
309.00,1.78393
309.50,1.79404
310.00,1.79563
310.50,1.78581
311.00,1.77319
311.50,1.75047
312.00,1.72355
312.50,1.67953
313.00,1.63366
313.50,1.57714
314.00,1.52711
314.50,1.47423
315.00,1.42646
315.50,1.38231
316.00,1.34581
316.50,1.31309
317.00,1.28288
317.50,1.25539
318.00,1.23469
318.50,1.21584
319.00,1.20045
319.50,1.18376
320.00,1.16958
320.50,1.15469
321.00,1.14258
321.50,1.13012
322.00,1.12131
322.50,1.10802
323.00,1.09742
323.50,1.08225
324.00,1.06974
324.50,1.05427
325.00,1.03977
325.50,1.02418
326.00,1.00908
326.50,0.99320
327.00,0.97799
327.50,0.96147
328.00,0.94314
328.50,0.92464
329.00,0.90544
329.50,0.88914
330.00,0.87216
330.50,0.85575
331.00,0.83936
331.50,0.82448
332.00,0.81047
332.50,0.79632
333.00,0.78263
333.50,0.77011
334.00,0.75879
334.50,0.74812
335.00,0.73928
335.50,0.73128
336.00,0.72526
336.50,0.71746
337.00,0.71172
337.50,0.70699
338.00,0.70581
338.50,0.70518
339.00,0.70495
339.50,0.70496
340.00,0.70590
340.50,0.70621
341.00,0.70956
341.50,0.71245
342.00,0.71826
342.50,0.72269
343.00,0.72829
343.50,0.73411
344.00,0.73973
344.50,0.74586
345.00,0.75050
345.50,0.75621
346.00,0.76280
346.50,0.77059
347.00,0.77654
347.50,0.78131
348.00,0.78506
348.50,0.79040
349.00,0.79319
349.50,0.79592
350.00,0.79617
350.50,0.79639
351.00,0.79566
351.50,0.79236
352.00,0.78837
352.50,0.78047
353.00,0.77361
353.50,0.76336
354.00,0.75454
354.50,0.74175
355.00,0.72918
355.50,0.71197
356.00,0.69589
356.50,0.67801
357.00,0.66127
357.50,0.64288
358.00,0.62477
358.50,0.60662
359.00,0.58759
359.50,0.56976
360.00,0.55176
360.50,0.53518
361.00,0.51862
361.50,0.50354
362.00,0.49035
362.50,0.47774
363.00,0.46726
363.50,0.45681
364.00,0.44905
364.50,0.44160
365.00,0.43569
365.50,0.43136
366.00,0.42766
366.50,0.42668
367.00,0.42613
367.50,0.42826
368.00,0.43142
368.50,0.43617
369.00,0.44241
369.50,0.44977
370.00,0.46025
370.50,0.47283
371.00,0.48822
371.50,0.50350
372.00,0.52109
372.50,0.54046
373.00,0.56401
373.50,0.58791
374.00,0.61378
374.50,0.64005
375.00,0.66902
375.50,0.69976
376.00,0.73237
376.50,0.76605
377.00,0.80017
377.50,0.83438
378.00,0.86794
378.50,0.90139
379.00,0.93369
379.50,0.96626
380.00,0.99746
380.50,1.02627
381.00,1.05199
381.50,1.07397
382.00,1.09306
382.50,1.11007
383.00,1.12316
383.50,1.13343
384.00,1.13979
384.50,1.14237
385.00,1.14318
385.50,1.13938
386.00,1.13475
386.50,1.12409
387.00,1.11312
387.50,1.09753
388.00,1.08080
388.50,1.06101
389.00,1.03977
389.50,1.01772
390.00,0.99308
390.50,0.96837
391.00,0.94000
391.50,0.91129
392.00,0.88155
392.50,0.85025
393.00,0.81847
393.50,0.78364
394.00,0.74982
394.50,0.71437
395.00,0.67809
395.50,0.64147
396.00,0.60319
396.50,0.56624
397.00,0.52792
397.50,0.49194
398.00,0.45597
398.50,0.42176
399.00,0.38773
399.50,0.35501
400.00,0.32395
400.50,0.29471
401.00,0.26695
401.50,0.24098
402.00,0.21682
402.50,0.19511
403.00,0.17440
403.50,0.15627
404.00,0.13887
404.50,0.12426
405.00,0.11053
405.50,0.09883
406.00,0.08746
406.50,0.07868
407.00,0.07001
407.50,0.06445
408.00,0.05755
408.50,0.05382
409.00,0.04852
409.50,0.04542
410.00,0.04163
410.50,0.03934
411.00,0.03705
411.50,0.03483
412.00,0.03325
412.50,0.03145
413.00,0.03065
413.50,0.02929
414.00,0.02860
414.50,0.02737
415.00,0.02665
415.50,0.02571
416.00,0.02501
416.50,0.02421
417.00,0.02399
417.50,0.02334
418.00,0.02352
418.50,0.02276
419.00,0.02323
419.50,0.02191
420.00,0.02104
420.50,0.02101
421.00,0.02090
421.50,0.02183
422.00,0.02094
422.50,0.02127
423.00,0.02114
423.50,0.02072
424.00,0.02101
424.50,0.01990
425.00,0.02065
425.50,0.01949
426.00,0.02085
426.50,0.01968
427.00,0.02042
427.50,0.01844
428.00,0.01860
428.50,0.01796
429.00,0.01901
429.50,0.01872
430.00,0.01879
430.50,0.01842
431.00,0.01815
431.50,0.01848
432.00,0.01786
432.50,0.01842
433.00,0.01724
433.50,0.01772
434.00,0.01735
434.50,0.01747
435.00,0.01737
435.50,0.01687
436.00,0.01749
436.50,0.01701
437.00,0.01766
437.50,0.01684
438.00,0.01749
438.50,0.01671
439.00,0.01725
439.50,0.01630
440.00,0.01670
440.50,0.01639
441.00,0.01668
441.50,0.01663
442.00,0.01604
442.50,0.01623
443.00,0.01542
443.50,0.01620
444.00,0.01522
444.50,0.01592
445.00,0.01514
445.50,0.01601
446.00,0.01552
446.50,0.01602
447.00,0.01574
447.50,0.01572
448.00,0.01552
448.50,0.01484
449.00,0.01516
449.50,0.01443
450.00,0.01482
450.50,0.01394
451.00,0.01476
451.50,0.01454
452.00,0.01532
452.50,0.01476
453.00,0.01494
453.50,0.01437
454.00,0.01443
454.50,0.01419
455.00,0.01396
455.50,0.01372
456.00,0.01379
456.50,0.01389
457.00,0.01419
457.50,0.01419
458.00,0.01431
458.50,0.01405
459.00,0.01396
459.50,0.01408
460.00,0.01370
460.50,0.01418
461.00,0.01340
461.50,0.01459
462.00,0.01348
462.50,0.01446
463.00,0.01287
463.50,0.01372
464.00,0.01281
464.50,0.01360
465.00,0.01286
465.50,0.01298
466.00,0.01281
466.50,0.01280
467.00,0.01334
467.50,0.01239
468.00,0.01293
468.50,0.01160
469.00,0.01293
469.50,0.01205
470.00,0.01345
470.50,0.01242
471.00,0.01319
471.50,0.01225
472.00,0.01268
472.50,0.01201
473.00,0.01237
473.50,0.01271
474.00,0.01249
474.50,0.01294
475.00,0.01184
475.50,0.01257
476.00,0.01137
476.50,0.01251
477.00,0.01164
477.50,0.01281
478.00,0.01159
478.50,0.01220
479.00,0.01116
479.50,0.01184
480.00,0.01156
480.50,0.01207
481.00,0.01179
481.50,0.01153
482.00,0.01124
482.50,0.01121
483.00,0.01118
483.50,0.01134
484.00,0.01121
484.50,0.01163
485.00,0.01114
485.50,0.01135
486.00,0.01092
486.50,0.01143
487.00,0.01111
487.50,0.01128
488.00,0.01080
488.50,0.01076
489.00,0.01082
489.50,0.01106
490.00,0.01129
490.50,0.01100
491.00,0.01101
491.50,0.01050
492.00,0.01084
492.50,0.01013
493.00,0.01090
493.50,0.01006
494.00,0.01071
494.50,0.00979
495.00,0.01074
495.50,0.01037
496.00,0.01066
496.50,0.01015
497.00,0.00995
497.50,0.01058
498.00,0.01024
498.50,0.01108
499.00,0.00986
499.50,0.01101
500.00,0.00990
500.50,0.01099
501.00,0.00983
501.50,0.01083
502.00,0.00997
502.50,0.01038
503.00,0.00974
503.50,0.00952
504.00,0.00951
504.50,0.00904
505.00,0.00996
505.50,0.00936
506.00,0.01052
506.50,0.00924
507.00,0.01026
507.50,0.00874
508.00,0.01031
508.50,0.00862
509.00,0.00971
509.50,0.00839
510.00,0.00959
510.50,0.00890
511.00,0.00896
511.50,0.00898
512.00,0.00862
512.50,0.00949
513.00,0.00842
513.50,0.00940
514.00,0.00844
514.50,0.00918
515.00,0.00873
515.50,0.00940
516.00,0.00909
516.50,0.00917
517.00,0.00871
517.50,0.00879
518.00,0.00893
518.50,0.00905
519.00,0.00901
519.50,0.00876
520.00,0.00823
520.50,0.00825
521.00,0.00828
521.50,0.00903
522.00,0.00885
522.50,0.00869
523.00,0.00824
523.50,0.00837
524.00,0.00866
524.50,0.00834
525.00,0.00879
525.50,0.00788
526.00,0.00894
526.50,0.00803
527.00,0.00902
527.50,0.00804
528.00,0.00870
528.50,0.00819
529.00,0.00863
529.50,0.00852
530.00,0.00915
530.50,0.00839
531.00,0.00862
531.50,0.00837
532.00,0.00880
532.50,0.00848
533.00,0.00783
533.50,0.00797
534.00,0.00805
534.50,0.00838
535.00,0.00852
535.50,0.00839
536.00,0.00812
536.50,0.00763
537.00,0.00758
537.50,0.00792
538.00,0.00815
538.50,0.00784
539.00,0.00790
539.50,0.00786
540.00,0.00810
540.50,0.00794
541.00,0.00767
541.50,0.00770
542.00,0.00735
542.50,0.00753
543.00,0.00730
543.50,0.00756
544.00,0.00742
544.50,0.00784
545.00,0.00783
545.50,0.00795
546.00,0.00745
546.50,0.00734
547.00,0.00706
547.50,0.00697
548.00,0.00698
548.50,0.00697
549.00,0.00726
549.50,0.00725
550.00,0.00756
550.50,0.00801
551.00,0.00768
551.50,0.00808
552.00,0.00657
552.50,0.00741
553.00,0.00615
553.50,0.00789
554.00,0.00661
554.50,0.00805
555.00,0.00646
555.50,0.00761
556.00,0.00675
556.50,0.00741
557.00,0.00727
557.50,0.00697
558.00,0.00739
558.50,0.00664
559.00,0.00772
559.50,0.00657
560.00,0.00792
560.50,0.00622
561.00,0.00769
561.50,0.00616
562.00,0.00801
562.50,0.00660
563.00,0.00777
563.50,0.00677
564.00,0.00772
564.50,0.00725
565.00,0.00722
565.50,0.00702
566.00,0.00626
566.50,0.00687
567.00,0.00644
567.50,0.00731
568.00,0.00650
568.50,0.00721
569.00,0.00643
569.50,0.00721
570.00,0.00647
570.50,0.00707
571.00,0.00667
571.50,0.00689
572.00,0.00684
572.50,0.00666
573.00,0.00687
573.50,0.00666
574.00,0.00689
574.50,0.00675
575.00,0.00679
575.50,0.00640
576.00,0.00655
576.50,0.00645
577.00,0.00655
577.50,0.00646
578.00,0.00674
578.50,0.00654
579.00,0.00690
579.50,0.00628
580.00,0.00695
580.50,0.00568
581.00,0.00682
581.50,0.00567
582.00,0.00718
582.50,0.00578
583.00,0.00695
583.50,0.00569
584.00,0.00651
584.50,0.00597
585.00,0.00610
585.50,0.00599
586.00,0.00538
586.50,0.00626
587.00,0.00549
587.50,0.00700
588.00,0.00579
588.50,0.00675
589.00,0.00546
589.50,0.00621
590.00,0.00609
590.50,0.00632
591.00,0.00645
591.50,0.00571
592.00,0.00636
592.50,0.00536
593.00,0.00701
593.50,0.00578
594.00,0.00727
594.50,0.00558
595.00,0.00650
595.50,0.00533
596.00,0.00613
596.50,0.00592
597.00,0.00608
597.50,0.00638
598.00,0.00605
598.50,0.00665
599.00,0.00498
599.50,0.00604
600.00,0.00643
