"12.5 - RawData"
"≤®≥§(nm)","Œ¸ ’÷µ"
250.00,1.77837
250.50,1.85828
251.00,1.97287
251.50,2.15084
252.00,2.23758
252.50,2.30920
253.00,2.20556
253.50,2.12817
254.00,2.00563
254.50,2.22398
255.00,2.35192
255.50,2.62851
256.00,2.26513
256.50,2.20450
257.00,2.18510
257.50,2.31395
258.00,2.41862
258.50,2.39964
259.00,2.33477
259.50,2.13901
260.00,2.20551
260.50,2.10694
261.00,2.24522
261.50,2.19434
262.00,2.54662
262.50,2.80944
263.00,2.88660
263.50,2.35160
264.00,2.28022
264.50,2.32333
265.00,2.72872
265.50,2.60713
266.00,2.56508
266.50,2.30137
267.00,2.40758
267.50,2.49892
268.00,2.69737
268.50,2.50449
269.00,2.56488
269.50,2.41580
270.00,2.46675
270.50,2.39588
271.00,2.58938
271.50,2.70011
272.00,2.68011
272.50,2.77676
273.00,2.76542
273.50,2.72004
274.00,2.59376
274.50,2.68778
275.00,2.69788
275.50,2.75042
276.00,2.63370
276.50,2.81765
277.00,2.79209
277.50,2.77931
278.00,2.67551
278.50,2.65814
279.00,2.69093
279.50,2.79282
280.00,2.79948
280.50,2.78473
281.00,2.72849
281.50,2.72335
282.00,2.71683
282.50,2.70063
283.00,2.78755
283.50,2.83047
284.00,2.84826
284.50,2.72865
285.00,2.69353
285.50,2.71802
286.00,2.74168
286.50,2.76068
287.00,2.70350
287.50,2.78315
288.00,2.79660
288.50,2.82626
289.00,2.81573
289.50,2.80386
290.00,2.79262
290.50,2.75100
291.00,2.70489
291.50,2.70589
292.00,2.70786
292.50,2.73793
293.00,2.73342
293.50,2.69538
294.00,2.66147
294.50,2.62343
295.00,2.61443
295.50,2.60265
296.00,2.57609
296.50,2.56490
297.00,2.52818
297.50,2.51212
298.00,2.47034
298.50,2.44595
299.00,2.41407
299.50,2.38425
300.00,2.35469
300.50,2.33162
301.00,2.32022
301.50,2.29320
302.00,2.27931
302.50,2.25134
303.00,2.24887
303.50,2.22797
304.00,2.22676
304.50,2.21113
305.00,2.22036
305.50,2.21265
306.00,2.20527
306.50,2.19587
307.00,2.18574
307.50,2.19261
308.00,2.17770
308.50,2.17979
309.00,2.16791
309.50,2.15382
310.00,2.13391
310.50,2.11222
311.00,2.09516
311.50,2.07900
312.00,2.04875
312.50,2.02082
313.00,1.97923
313.50,1.95054
314.00,1.90907
314.50,1.88096
315.00,1.84899
315.50,1.82930
316.00,1.79947
316.50,1.77962
317.00,1.75547
317.50,1.73999
318.00,1.71913
318.50,1.70650
319.00,1.69465
319.50,1.68920
320.00,1.68354
320.50,1.67974
321.00,1.67893
321.50,1.68084
322.00,1.68388
322.50,1.68608
323.00,1.68912
323.50,1.68886
324.00,1.69034
324.50,1.69205
325.00,1.69751
325.50,1.69788
326.00,1.69585
326.50,1.69431
327.00,1.69248
327.50,1.69058
328.00,1.68466
328.50,1.68117
329.00,1.67756
329.50,1.67134
330.00,1.66418
330.50,1.65446
331.00,1.64817
331.50,1.64165
332.00,1.63481
332.50,1.63175
333.00,1.62403
333.50,1.61960
334.00,1.61556
334.50,1.61552
335.00,1.61777
335.50,1.61883
336.00,1.62055
336.50,1.61840
337.00,1.61529
337.50,1.61440
338.00,1.61320
338.50,1.61308
339.00,1.61055
339.50,1.60466
340.00,1.59931
340.50,1.59287
341.00,1.58595
341.50,1.57470
342.00,1.56210
342.50,1.54948
343.00,1.53323
343.50,1.51543
344.00,1.49660
344.50,1.47826
345.00,1.45769
345.50,1.43495
346.00,1.40997
346.50,1.38483
347.00,1.35851
347.50,1.33346
348.00,1.30745
348.50,1.28336
349.00,1.25652
349.50,1.23078
350.00,1.20421
350.50,1.18125
351.00,1.15887
351.50,1.13743
352.00,1.11753
352.50,1.09740
353.00,1.08080
353.50,1.06336
354.00,1.05025
354.50,1.03525
355.00,1.02456
355.50,1.01288
356.00,1.00687
356.50,0.99886
357.00,0.99551
357.50,0.99129
358.00,0.99086
358.50,0.99045
359.00,0.99249
359.50,0.99678
360.00,1.00354
360.50,1.01236
361.00,1.02125
361.50,1.03177
362.00,1.04219
362.50,1.05501
363.00,1.06902
363.50,1.08525
364.00,1.10260
364.50,1.12002
365.00,1.13598
365.50,1.15347
366.00,1.16923
366.50,1.18629
367.00,1.19666
367.50,1.20778
368.00,1.21645
368.50,1.22722
369.00,1.23036
369.50,1.23107
370.00,1.22665
370.50,1.22175
371.00,1.21344
371.50,1.20019
372.00,1.18589
372.50,1.16690
373.00,1.14848
373.50,1.12361
374.00,1.09916
374.50,1.07119
375.00,1.04421
375.50,1.01556
376.00,0.98677
376.50,0.95640
377.00,0.92693
377.50,0.89667
378.00,0.86921
378.50,0.84156
379.00,0.81644
379.50,0.79080
380.00,0.76611
380.50,0.74289
381.00,0.72267
381.50,0.70452
382.00,0.68780
382.50,0.67343
383.00,0.65978
383.50,0.64908
384.00,0.63960
384.50,0.63400
385.00,0.62941
385.50,0.62655
386.00,0.62602
386.50,0.62807
387.00,0.63294
387.50,0.64125
388.00,0.65180
388.50,0.66579
389.00,0.68204
389.50,0.70301
390.00,0.72661
390.50,0.75433
391.00,0.78533
391.50,0.82098
392.00,0.85857
392.50,0.89977
393.00,0.94350
393.50,0.99069
394.00,1.03957
394.50,1.09081
395.00,1.14041
395.50,1.19188
396.00,1.24071
396.50,1.29237
397.00,1.33865
397.50,1.38358
398.00,1.42251
398.50,1.45893
399.00,1.49057
399.50,1.51745
400.00,1.53944
400.50,1.55586
401.00,1.56952
401.50,1.57763
402.00,1.58323
402.50,1.58255
403.00,1.57997
403.50,1.57176
404.00,1.56187
404.50,1.54825
405.00,1.53210
405.50,1.51283
406.00,1.49114
406.50,1.46789
407.00,1.44197
407.50,1.41370
408.00,1.38190
408.50,1.34741
409.00,1.30882
409.50,1.26575
410.00,1.22083
410.50,1.17344
411.00,1.12559
411.50,1.07339
412.00,1.02015
412.50,0.96416
413.00,0.90795
413.50,0.85173
414.00,0.79548
414.50,0.74105
415.00,0.68642
415.50,0.63513
416.00,0.58369
416.50,0.53608
417.00,0.48939
417.50,0.44600
418.00,0.40421
418.50,0.36546
419.00,0.33059
419.50,0.29850
420.00,0.27050
420.50,0.24558
421.00,0.22288
421.50,0.20229
422.00,0.18252
422.50,0.16556
423.00,0.14979
423.50,0.13669
424.00,0.12499
424.50,0.11527
425.00,0.10616
425.50,0.09894
426.00,0.09231
426.50,0.08712
427.00,0.08190
427.50,0.07744
428.00,0.07316
428.50,0.07040
429.00,0.06739
429.50,0.06571
430.00,0.06350
430.50,0.06239
431.00,0.06070
431.50,0.05946
432.00,0.05852
432.50,0.05764
433.00,0.05688
433.50,0.05652
434.00,0.05533
434.50,0.05500
435.00,0.05392
435.50,0.05442
436.00,0.05347
436.50,0.05293
437.00,0.05230
437.50,0.05207
438.00,0.05251
438.50,0.05173
439.00,0.05191
439.50,0.05074
440.00,0.05155
440.50,0.05069
441.00,0.05115
441.50,0.05045
442.00,0.05065
442.50,0.05023
443.00,0.04988
443.50,0.04961
444.00,0.04954
444.50,0.04949
445.00,0.04957
445.50,0.04938
446.00,0.04952
446.50,0.04944
447.00,0.04937
447.50,0.04885
448.00,0.04873
448.50,0.04852
449.00,0.04844
449.50,0.04837
450.00,0.04808
450.50,0.04834
451.00,0.04794
451.50,0.04865
452.00,0.04804
452.50,0.04835
453.00,0.04737
453.50,0.04790
454.00,0.04726
454.50,0.04750
455.00,0.04711
455.50,0.04690
456.00,0.04723
456.50,0.04641
457.00,0.04752
457.50,0.04641
458.00,0.04773
458.50,0.04599
459.00,0.04706
459.50,0.04615
460.00,0.04666
460.50,0.04624
461.00,0.04586
461.50,0.04657
462.00,0.04580
462.50,0.04666
463.00,0.04516
463.50,0.04635
464.00,0.04509
464.50,0.04641
465.00,0.04503
465.50,0.04615
466.00,0.04503
466.50,0.04565
467.00,0.04491
467.50,0.04524
468.00,0.04487
468.50,0.04462
469.00,0.04459
469.50,0.04451
470.00,0.04468
470.50,0.04440
471.00,0.04430
471.50,0.04428
472.00,0.04434
472.50,0.04423
473.00,0.04423
473.50,0.04452
474.00,0.04446
474.50,0.04445
475.00,0.04410
475.50,0.04393
476.00,0.04349
476.50,0.04333
477.00,0.04353
477.50,0.04376
478.00,0.04365
478.50,0.04315
479.00,0.04308
479.50,0.04263
480.00,0.04330
480.50,0.04258
481.00,0.04305
481.50,0.04167
482.00,0.04212
482.50,0.04150
483.00,0.04243
483.50,0.04232
484.00,0.04253
484.50,0.04249
485.00,0.04194
485.50,0.04261
486.00,0.04151
486.50,0.04229
487.00,0.04064
487.50,0.04195
488.00,0.04096
488.50,0.04250
489.00,0.04136
489.50,0.04242
490.00,0.04143
490.50,0.04237
491.00,0.04143
491.50,0.04154
492.00,0.04096
492.50,0.04081
493.00,0.04148
493.50,0.04067
494.00,0.04126
494.50,0.03986
495.00,0.04138
495.50,0.04031
496.00,0.04130
496.50,0.04014
497.00,0.04111
497.50,0.04074
498.00,0.04135
498.50,0.04116
499.00,0.04140
499.50,0.04112
500.00,0.04101
500.50,0.04053
501.00,0.04022
501.50,0.04001
502.00,0.03999
502.50,0.04006
503.00,0.03996
503.50,0.03984
504.00,0.03930
504.50,0.03945
505.00,0.03922
505.50,0.03970
506.00,0.03944
506.50,0.03974
507.00,0.03984
507.50,0.03946
508.00,0.03970
508.50,0.03893
509.00,0.03942
509.50,0.03880
510.00,0.03934
510.50,0.03865
511.00,0.03879
511.50,0.03845
512.00,0.03867
512.50,0.03854
513.00,0.03887
513.50,0.03863
514.00,0.03889
514.50,0.03825
515.00,0.03913
515.50,0.03877
516.00,0.03921
516.50,0.03840
517.00,0.03835
517.50,0.03827
518.00,0.03841
518.50,0.03853
519.00,0.03819
519.50,0.03856
520.00,0.03773
520.50,0.03846
521.00,0.03776
521.50,0.03939
522.00,0.03828
522.50,0.03908
523.00,0.03772
523.50,0.03870
524.00,0.03756
524.50,0.03803
525.00,0.03745
525.50,0.03767
526.00,0.03801
526.50,0.03757
527.00,0.03839
527.50,0.03742
528.00,0.03844
528.50,0.03716
529.00,0.03839
529.50,0.03716
530.00,0.03819
530.50,0.03689
531.00,0.03767
531.50,0.03727
532.00,0.03800
532.50,0.03739
533.00,0.03782
533.50,0.03702
534.00,0.03802
534.50,0.03683
535.00,0.03807
535.50,0.03679
536.00,0.03783
536.50,0.03615
537.00,0.03715
537.50,0.03619
538.00,0.03756
538.50,0.03648
539.00,0.03742
539.50,0.03670
540.00,0.03720
540.50,0.03693
541.00,0.03678
541.50,0.03719
542.00,0.03621
542.50,0.03710
543.00,0.03598
543.50,0.03747
544.00,0.03609
544.50,0.03752
545.00,0.03614
545.50,0.03721
546.00,0.03580
546.50,0.03665
547.00,0.03583
547.50,0.03639
548.00,0.03593
548.50,0.03605
549.00,0.03621
549.50,0.03621
550.00,0.03679
550.50,0.03678
551.00,0.03687
551.50,0.03636
552.00,0.03577
552.50,0.03560
553.00,0.03546
553.50,0.03570
554.00,0.03592
554.50,0.03601
555.00,0.03605
555.50,0.03564
556.00,0.03574
556.50,0.03510
557.00,0.03592
557.50,0.03525
558.00,0.03650
558.50,0.03527
559.00,0.03645
559.50,0.03502
560.00,0.03650
560.50,0.03496
561.00,0.03642
561.50,0.03507
562.00,0.03631
562.50,0.03515
563.00,0.03546
563.50,0.03540
564.00,0.03566
564.50,0.03629
565.00,0.03520
565.50,0.03590
566.00,0.03424
566.50,0.03598
567.00,0.03449
567.50,0.03606
568.00,0.03423
568.50,0.03552
569.00,0.03450
569.50,0.03547
570.00,0.03475
570.50,0.03499
571.00,0.03488
571.50,0.03465
572.00,0.03547
572.50,0.03474
573.00,0.03575
573.50,0.03453
574.00,0.03576
574.50,0.03446
575.00,0.03538
575.50,0.03407
576.00,0.03512
576.50,0.03469
577.00,0.03510
577.50,0.03485
578.00,0.03453
578.50,0.03472
579.00,0.03432
579.50,0.03470
580.00,0.03438
580.50,0.03440
581.00,0.03414
581.50,0.03448
582.00,0.03455
582.50,0.03422
583.00,0.03380
583.50,0.03357
584.00,0.03376
584.50,0.03379
585.00,0.03378
585.50,0.03370
586.00,0.03335
586.50,0.03382
587.00,0.03366
587.50,0.03422
588.00,0.03364
588.50,0.03399
589.00,0.03344
589.50,0.03365
590.00,0.03371
590.50,0.03368
591.00,0.03387
591.50,0.03296
592.00,0.03386
592.50,0.03274
593.00,0.03452
593.50,0.03311
594.00,0.03491
594.50,0.03300
595.00,0.03436
595.50,0.03287
596.00,0.03396
596.50,0.03300
597.00,0.03336
597.50,0.03357
598.00,0.03368
598.50,0.03432
599.00,0.03266
599.50,0.03362
600.00,0.03379
