"2.5min - RawData"
"≤®≥§(nm)","Œ¸ ’÷µ"
250.00,2.11796
250.50,2.26256
251.00,2.22395
251.50,2.20057
252.00,2.14154
252.50,2.32230
253.00,2.34417
253.50,2.21657
254.00,2.10389
254.50,2.22014
255.00,2.40401
255.50,2.39920
256.00,2.41006
256.50,2.55199
257.00,2.55989
257.50,2.35361
258.00,2.25251
258.50,2.27626
259.00,2.34285
259.50,2.40155
260.00,2.66751
260.50,2.72219
261.00,2.49587
261.50,2.61724
262.00,2.57902
262.50,2.69025
263.00,2.46951
263.50,2.45121
264.00,2.45463
264.50,2.52205
265.00,2.66645
265.50,2.64999
266.00,2.61618
266.50,2.57927
267.00,2.74276
267.50,2.77709
268.00,2.83406
268.50,2.79206
269.00,2.71871
269.50,2.63973
270.00,2.65365
270.50,2.72523
271.00,2.73564
271.50,2.72585
272.00,2.94498
272.50,2.86804
273.00,3.02266
273.50,2.98580
274.00,2.94667
274.50,2.89957
275.00,2.80895
275.50,3.08311
276.00,2.95580
276.50,2.92307
277.00,2.82984
277.50,2.88661
278.00,2.90111
278.50,2.91933
279.00,2.92283
279.50,2.99769
280.00,2.90938
280.50,2.91252
281.00,2.96673
281.50,3.13844
282.00,3.22989
282.50,3.06913
283.00,3.04125
283.50,3.02824
284.00,2.98566
284.50,2.95720
285.00,3.10108
285.50,3.11578
286.00,2.98441
286.50,2.83228
287.00,2.81981
287.50,2.84119
288.00,2.81443
288.50,2.79927
289.00,2.73127
289.50,2.68915
290.00,2.68385
290.50,2.75499
291.00,2.78382
291.50,2.76496
292.00,2.71655
292.50,2.71476
293.00,2.68441
293.50,2.64173
294.00,2.63745
294.50,2.59944
295.00,2.58662
295.50,2.54710
296.00,2.55079
296.50,2.55598
297.00,2.55592
297.50,2.55443
298.00,2.52176
298.50,2.49368
299.00,2.46903
299.50,2.48568
300.00,2.48993
300.50,2.47517
301.00,2.46721
301.50,2.44641
302.00,2.44949
302.50,2.44942
303.00,2.46733
303.50,2.47857
304.00,2.47246
304.50,2.50472
305.00,2.52484
305.50,2.55009
306.00,2.55366
306.50,2.57548
307.00,2.61451
307.50,2.66135
308.00,2.71384
308.50,2.71754
309.00,2.74421
309.50,2.75691
310.00,2.79068
310.50,2.79536
311.00,2.79498
311.50,2.79265
312.00,2.74508
312.50,2.68887
313.00,2.63929
313.50,2.58588
314.00,2.51850
314.50,2.44494
315.00,2.38890
315.50,2.34028
316.00,2.29248
316.50,2.25820
317.00,2.22653
317.50,2.20038
318.00,2.17121
318.50,2.14433
319.00,2.13462
319.50,2.11921
320.00,2.11839
320.50,2.10885
321.00,2.11258
321.50,2.10328
322.00,2.09895
322.50,2.08594
323.00,2.08397
323.50,2.07675
324.00,2.06390
324.50,2.04970
325.00,2.03590
325.50,2.02898
326.00,2.01970
326.50,2.00877
327.00,1.98963
327.50,1.96435
328.00,1.93622
328.50,1.91164
329.00,1.88683
329.50,1.86227
330.00,1.83446
330.50,1.80153
331.00,1.76714
331.50,1.73428
332.00,1.70659
332.50,1.67905
333.00,1.65001
333.50,1.61924
334.00,1.58659
334.50,1.55781
335.00,1.52810
335.50,1.49951
336.00,1.47296
336.50,1.44854
337.00,1.42724
337.50,1.40449
338.00,1.38282
338.50,1.36272
339.00,1.34614
339.50,1.33172
340.00,1.31821
340.50,1.30580
341.00,1.29680
341.50,1.28893
342.00,1.28307
342.50,1.27736
343.00,1.27479
343.50,1.27119
344.00,1.27158
344.50,1.27233
345.00,1.27880
345.50,1.28255
346.00,1.29143
346.50,1.29987
347.00,1.31127
347.50,1.32187
348.00,1.33311
348.50,1.34848
349.00,1.36266
349.50,1.37984
350.00,1.39355
350.50,1.41130
351.00,1.42706
351.50,1.44513
352.00,1.45763
352.50,1.47124
353.00,1.48267
353.50,1.49417
354.00,1.49964
354.50,1.50407
355.00,1.50398
355.50,1.50062
356.00,1.49370
356.50,1.48275
357.00,1.46818
357.50,1.44880
358.00,1.42709
358.50,1.40387
359.00,1.37704
359.50,1.34753
360.00,1.31392
360.50,1.27908
361.00,1.24369
361.50,1.21006
362.00,1.17562
362.50,1.14259
363.00,1.10907
363.50,1.07833
364.00,1.04755
364.50,1.01909
365.00,0.99141
365.50,0.96639
366.00,0.94131
366.50,0.91825
367.00,0.89578
367.50,0.87755
368.00,0.86059
368.50,0.84637
369.00,0.83203
369.50,0.82041
370.00,0.81050
370.50,0.80316
371.00,0.79737
371.50,0.79499
372.00,0.79515
372.50,0.79798
373.00,0.80245
373.50,0.80978
374.00,0.82023
374.50,0.83299
375.00,0.85093
375.50,0.87187
376.00,0.89973
376.50,0.92931
377.00,0.96505
377.50,1.00206
378.00,1.04576
378.50,1.09292
379.00,1.14610
379.50,1.20220
380.00,1.26243
380.50,1.32676
381.00,1.39176
381.50,1.45923
382.00,1.52367
382.50,1.59015
383.00,1.65203
383.50,1.71497
384.00,1.77184
384.50,1.82597
385.00,1.87342
385.50,1.91598
386.00,1.95280
386.50,1.98324
387.00,2.00811
387.50,2.02691
388.00,2.03867
388.50,2.04574
389.00,2.04681
389.50,2.04451
390.00,2.03565
390.50,2.02326
391.00,2.00560
391.50,1.98437
392.00,1.95729
392.50,1.92928
393.00,1.89802
393.50,1.86416
394.00,1.82669
394.50,1.78622
395.00,1.74205
395.50,1.69504
396.00,1.64146
396.50,1.58718
397.00,1.52719
397.50,1.46546
398.00,1.40193
398.50,1.33606
399.00,1.27022
399.50,1.20210
400.00,1.13532
400.50,1.06658
401.00,0.99906
401.50,0.93033
402.00,0.86527
402.50,0.80174
403.00,0.74253
403.50,0.68466
404.00,0.63021
404.50,0.57808
405.00,0.53028
405.50,0.48480
406.00,0.44474
406.50,0.40779
407.00,0.37534
407.50,0.34528
408.00,0.31854
408.50,0.29478
409.00,0.27388
409.50,0.25494
410.00,0.23835
410.50,0.22325
411.00,0.21108
411.50,0.20014
412.00,0.19117
412.50,0.18314
413.00,0.17596
413.50,0.16989
414.00,0.16343
414.50,0.15934
415.00,0.15442
415.50,0.15252
416.00,0.14855
416.50,0.14709
417.00,0.14376
417.50,0.14224
418.00,0.14042
418.50,0.13914
419.00,0.13888
419.50,0.13654
420.00,0.13504
420.50,0.13417
421.00,0.13364
421.50,0.13422
422.00,0.13254
422.50,0.13312
423.00,0.13203
423.50,0.13185
424.00,0.13109
424.50,0.13041
425.00,0.13027
425.50,0.12923
426.00,0.12966
426.50,0.12859
427.00,0.12925
427.50,0.12729
428.00,0.12734
428.50,0.12626
429.00,0.12713
429.50,0.12620
430.00,0.12644
430.50,0.12581
431.00,0.12552
431.50,0.12513
432.00,0.12443
432.50,0.12465
433.00,0.12362
433.50,0.12423
434.00,0.12388
434.50,0.12376
435.00,0.12308
435.50,0.12233
436.00,0.12257
436.50,0.12166
437.00,0.12223
437.50,0.12121
438.00,0.12195
438.50,0.12055
439.00,0.12128
439.50,0.12002
440.00,0.12086
440.50,0.11971
441.00,0.12008
441.50,0.11941
442.00,0.11938
442.50,0.11933
443.00,0.11863
443.50,0.11892
444.00,0.11788
444.50,0.11846
445.00,0.11775
445.50,0.11848
446.00,0.11761
446.50,0.11801
447.00,0.11745
447.50,0.11761
448.00,0.11702
448.50,0.11664
449.00,0.11680
449.50,0.11627
450.00,0.11628
450.50,0.11537
451.00,0.11565
451.50,0.11556
452.00,0.11582
452.50,0.11551
453.00,0.11524
453.50,0.11492
454.00,0.11479
454.50,0.11453
455.00,0.11426
455.50,0.11363
456.00,0.11387
456.50,0.11305
457.00,0.11375
457.50,0.11259
458.00,0.11351
458.50,0.11206
459.00,0.11266
459.50,0.11190
460.00,0.11204
460.50,0.11198
461.00,0.11147
461.50,0.11225
462.00,0.11101
462.50,0.11192
463.00,0.11028
463.50,0.11139
464.00,0.10989
464.50,0.11091
465.00,0.10963
465.50,0.11017
466.00,0.10920
466.50,0.10945
467.00,0.10941
467.50,0.10899
468.00,0.10925
468.50,0.10799
469.00,0.10904
469.50,0.10786
470.00,0.10882
470.50,0.10745
471.00,0.10810
471.50,0.10729
472.00,0.10804
472.50,0.10720
473.00,0.10758
473.50,0.10707
474.00,0.10702
474.50,0.10692
475.00,0.10641
475.50,0.10672
476.00,0.10588
476.50,0.10641
477.00,0.10557
477.50,0.10637
478.00,0.10528
478.50,0.10570
479.00,0.10457
479.50,0.10495
480.00,0.10449
480.50,0.10475
481.00,0.10423
481.50,0.10397
482.00,0.10378
482.50,0.10374
483.00,0.10378
483.50,0.10361
484.00,0.10341
484.50,0.10354
485.00,0.10302
485.50,0.10305
486.00,0.10247
486.50,0.10245
487.00,0.10209
487.50,0.10197
488.00,0.10209
488.50,0.10211
489.00,0.10204
489.50,0.10186
490.00,0.10205
490.50,0.10168
491.00,0.10156
491.50,0.10064
492.00,0.10115
492.50,0.10036
493.00,0.10126
493.50,0.09986
494.00,0.10058
494.50,0.09938
495.00,0.10026
495.50,0.09952
496.00,0.09973
496.50,0.09972
497.00,0.09941
497.50,0.09968
498.00,0.09864
498.50,0.09954
499.00,0.09818
499.50,0.09932
500.00,0.09788
500.50,0.09911
501.00,0.09762
501.50,0.09864
502.00,0.09751
502.50,0.09807
503.00,0.09711
503.50,0.09722
504.00,0.09670
504.50,0.09668
505.00,0.09685
505.50,0.09675
506.00,0.09728
506.50,0.09646
507.00,0.09715
507.50,0.09585
508.00,0.09686
508.50,0.09499
509.00,0.09581
509.50,0.09438
510.00,0.09564
510.50,0.09476
511.00,0.09525
511.50,0.09496
512.00,0.09490
512.50,0.09525
513.00,0.09454
513.50,0.09508
514.00,0.09402
514.50,0.09451
515.00,0.09384
515.50,0.09462
516.00,0.09403
516.50,0.09416
517.00,0.09363
517.50,0.09355
518.00,0.09378
518.50,0.09367
519.00,0.09385
519.50,0.09317
520.00,0.09291
520.50,0.09261
521.00,0.09283
521.50,0.09301
522.00,0.09271
522.50,0.09221
523.00,0.09180
523.50,0.09180
524.00,0.09197
524.50,0.09186
525.00,0.09194
525.50,0.09163
526.00,0.09202
526.50,0.09184
527.00,0.09195
527.50,0.09160
528.00,0.09129
528.50,0.09130
529.00,0.09093
529.50,0.09100
530.00,0.09106
530.50,0.09033
531.00,0.09075
531.50,0.09053
532.00,0.09083
532.50,0.09038
533.00,0.08967
533.50,0.08987
534.00,0.08999
534.50,0.08991
535.00,0.09044
535.50,0.08956
536.00,0.09018
536.50,0.08887
537.00,0.08965
537.50,0.08875
538.00,0.08989
538.50,0.08894
539.00,0.08970
539.50,0.08872
540.00,0.08891
540.50,0.08852
541.00,0.08829
541.50,0.08856
542.00,0.08746
542.50,0.08845
543.00,0.08703
543.50,0.08848
544.00,0.08693
544.50,0.08858
545.00,0.08737
545.50,0.08827
546.00,0.08736
546.50,0.08762
547.00,0.08738
547.50,0.08677
548.00,0.08729
548.50,0.08613
549.00,0.08759
549.50,0.08634
550.00,0.08788
550.50,0.08678
551.00,0.08752
551.50,0.08678
552.00,0.08622
552.50,0.08608
553.00,0.08560
553.50,0.08669
554.00,0.08566
554.50,0.08675
555.00,0.08517
555.50,0.08660
556.00,0.08527
556.50,0.08624
557.00,0.08536
557.50,0.08572
558.00,0.08565
558.50,0.08556
559.00,0.08589
559.50,0.08485
560.00,0.08575
560.50,0.08413
561.00,0.08550
561.50,0.08390
562.00,0.08550
562.50,0.08425
563.00,0.08494
563.50,0.08451
564.00,0.08476
564.50,0.08506
565.00,0.08428
565.50,0.08481
566.00,0.08321
566.50,0.08443
567.00,0.08304
567.50,0.08455
568.00,0.08317
568.50,0.08411
569.00,0.08355
569.50,0.08392
570.00,0.08405
570.50,0.08308
571.00,0.08366
571.50,0.08208
572.00,0.08375
572.50,0.08229
573.00,0.08396
573.50,0.08247
574.00,0.08350
574.50,0.08280
575.00,0.08292
575.50,0.08278
576.00,0.08195
576.50,0.08285
577.00,0.08155
577.50,0.08292
578.00,0.08123
578.50,0.08237
579.00,0.08149
579.50,0.08217
580.00,0.08209
580.50,0.08138
581.00,0.08203
581.50,0.08087
582.00,0.08244
582.50,0.08055
583.00,0.08170
583.50,0.07971
584.00,0.08121
584.50,0.08005
585.00,0.08071
585.50,0.07986
586.00,0.07975
586.50,0.08013
587.00,0.07947
587.50,0.08091
588.00,0.07967
588.50,0.08108
589.00,0.07914
589.50,0.08023
590.00,0.07913
590.50,0.07994
591.00,0.07950
591.50,0.07930
592.00,0.07963
592.50,0.07869
593.00,0.08018
593.50,0.07894
594.00,0.08081
594.50,0.07883
595.00,0.08026
595.50,0.07852
596.00,0.08005
596.50,0.07849
597.00,0.07926
597.50,0.07846
598.00,0.07948
598.50,0.07876
599.00,0.07792
599.50,0.07805
600.00,0.07890
