"22min - RawData"
"≤®≥§(nm)","Œ¸ ’÷µ"
250.00,1.97568
250.50,1.90813
251.00,1.99462
251.50,1.98476
252.00,2.13274
252.50,2.03306
253.00,2.10114
253.50,2.19297
254.00,2.28401
254.50,2.47175
255.00,2.54466
255.50,2.95105
256.00,2.53595
256.50,2.30211
257.00,2.20603
257.50,2.38639
258.00,2.50472
258.50,2.54727
259.00,2.50678
259.50,2.40049
260.00,2.21804
260.50,2.21756
261.00,2.28657
261.50,2.46559
262.00,2.23883
262.50,2.20154
263.00,2.21779
263.50,2.39196
264.00,2.44443
264.50,2.38647
265.00,2.36859
265.50,2.35377
266.00,2.38203
266.50,2.31791
267.00,2.35998
267.50,2.45985
268.00,2.42739
268.50,2.34522
269.00,2.29648
269.50,2.35267
270.00,2.39797
270.50,2.33359
271.00,2.33351
271.50,2.29845
272.00,2.35503
272.50,2.38682
273.00,2.44764
273.50,2.46577
274.00,2.46779
274.50,2.40925
275.00,2.38650
275.50,2.37545
276.00,2.43356
276.50,2.43013
277.00,2.40437
277.50,2.40506
278.00,2.39853
278.50,2.40313
279.00,2.38586
279.50,2.39223
280.00,2.39861
280.50,2.35974
281.00,2.32652
281.50,2.29274
282.00,2.30151
282.50,2.29558
283.00,2.31300
283.50,2.29435
284.00,2.24632
284.50,2.20830
285.00,2.19211
285.50,2.19284
286.00,2.17651
286.50,2.15548
287.00,2.13930
287.50,2.11707
288.00,2.09969
288.50,2.07760
289.00,2.06625
289.50,2.04965
290.00,2.03061
290.50,1.99957
291.00,1.97689
291.50,1.96196
292.00,1.95554
292.50,1.94147
293.00,1.92917
293.50,1.91231
294.00,1.89990
294.50,1.88375
295.00,1.87276
295.50,1.86513
296.00,1.86119
296.50,1.85204
297.00,1.84478
297.50,1.84040
298.00,1.83460
298.50,1.82615
299.00,1.81370
299.50,1.80917
300.00,1.80130
300.50,1.80010
301.00,1.79928
301.50,1.80206
302.00,1.79814
302.50,1.78956
303.00,1.78958
303.50,1.78816
304.00,1.78577
304.50,1.78303
305.00,1.77517
305.50,1.77721
306.00,1.76840
306.50,1.77166
307.00,1.76358
307.50,1.75863
308.00,1.74848
308.50,1.74465
309.00,1.73808
309.50,1.73093
310.00,1.71863
310.50,1.70635
311.00,1.68991
311.50,1.68005
312.00,1.66984
312.50,1.66396
313.00,1.64972
313.50,1.63286
314.00,1.61495
314.50,1.59842
315.00,1.58744
315.50,1.57445
316.00,1.55891
316.50,1.54308
317.00,1.52863
317.50,1.51572
318.00,1.50233
318.50,1.48781
319.00,1.47532
319.50,1.45991
320.00,1.44927
320.50,1.43454
321.00,1.42505
321.50,1.41006
322.00,1.40256
322.50,1.39136
323.00,1.38274
323.50,1.37011
324.00,1.35989
324.50,1.35085
325.00,1.33978
325.50,1.32645
326.00,1.31210
326.50,1.30079
327.00,1.28982
327.50,1.28162
328.00,1.27012
328.50,1.26084
329.00,1.25142
329.50,1.24366
330.00,1.23437
330.50,1.22151
331.00,1.21118
331.50,1.20146
332.00,1.19249
332.50,1.18360
333.00,1.17426
333.50,1.16608
334.00,1.15688
334.50,1.15003
335.00,1.14369
335.50,1.13884
336.00,1.13408
336.50,1.12848
337.00,1.12336
337.50,1.11939
338.00,1.11748
338.50,1.11479
339.00,1.11235
339.50,1.10958
340.00,1.10703
340.50,1.10378
341.00,1.10198
341.50,1.10159
342.00,1.10140
342.50,1.10150
343.00,1.10014
343.50,1.09880
344.00,1.09622
344.50,1.09557
345.00,1.09464
345.50,1.09513
346.00,1.09457
346.50,1.09435
347.00,1.09259
347.50,1.09259
348.00,1.09175
348.50,1.09362
349.00,1.09260
349.50,1.09345
350.00,1.09284
350.50,1.09621
351.00,1.09712
351.50,1.09913
352.00,1.10035
352.50,1.10209
353.00,1.10415
353.50,1.10484
354.00,1.10728
354.50,1.10754
355.00,1.10809
355.50,1.10548
356.00,1.10487
356.50,1.09963
357.00,1.09777
357.50,1.09157
358.00,1.08807
358.50,1.08118
359.00,1.07306
359.50,1.06365
360.00,1.05304
360.50,1.04238
361.00,1.02963
361.50,1.01728
362.00,1.00333
362.50,0.98911
363.00,0.97280
363.50,0.95707
364.00,0.94146
364.50,0.92669
365.00,0.91102
365.50,0.89680
366.00,0.87847
366.50,0.86237
367.00,0.84476
367.50,0.83068
368.00,0.81583
368.50,0.80186
369.00,0.78723
369.50,0.77371
370.00,0.76094
370.50,0.75017
371.00,0.73979
371.50,0.72951
372.00,0.72115
372.50,0.71325
373.00,0.70779
373.50,0.70077
374.00,0.69650
374.50,0.69196
375.00,0.69143
375.50,0.69039
376.00,0.69201
376.50,0.69305
377.00,0.69707
377.50,0.70057
378.00,0.70719
378.50,0.71287
379.00,0.72127
379.50,0.72820
380.00,0.73820
380.50,0.74778
381.00,0.75947
381.50,0.76975
382.00,0.77969
382.50,0.78879
383.00,0.79634
383.50,0.80446
384.00,0.81063
384.50,0.81700
385.00,0.82056
385.50,0.82313
386.00,0.82396
386.50,0.82403
387.00,0.82248
387.50,0.81916
388.00,0.81337
388.50,0.80559
389.00,0.79648
389.50,0.78620
390.00,0.77511
390.50,0.76291
391.00,0.74890
391.50,0.73402
392.00,0.71802
392.50,0.70208
393.00,0.68559
393.50,0.66860
394.00,0.65137
394.50,0.63494
395.00,0.61774
395.50,0.60254
396.00,0.58621
396.50,0.57201
397.00,0.55568
397.50,0.54233
398.00,0.52842
398.50,0.51786
399.00,0.50688
399.50,0.49809
400.00,0.48978
400.50,0.48348
401.00,0.47867
401.50,0.47567
402.00,0.47429
402.50,0.47481
403.00,0.47654
403.50,0.48109
404.00,0.48744
404.50,0.49713
405.00,0.50760
405.50,0.52090
406.00,0.53488
406.50,0.55259
407.00,0.57026
407.50,0.59177
408.00,0.61218
408.50,0.63681
409.00,0.65993
409.50,0.68638
410.00,0.71061
410.50,0.73612
411.00,0.75982
411.50,0.78461
412.00,0.80782
412.50,0.83127
413.00,0.85228
413.50,0.87314
414.00,0.89074
414.50,0.90839
415.00,0.92388
415.50,0.93892
416.00,0.95075
416.50,0.96190
417.00,0.97026
417.50,0.97745
418.00,0.98185
418.50,0.98304
419.00,0.98424
419.50,0.98082
420.00,0.97714
420.50,0.97064
421.00,0.96173
421.50,0.95137
422.00,0.93628
422.50,0.92174
423.00,0.90357
423.50,0.88439
424.00,0.86276
424.50,0.83937
425.00,0.81361
425.50,0.78567
426.00,0.75654
426.50,0.72548
427.00,0.69306
427.50,0.65898
428.00,0.62415
428.50,0.58847
429.00,0.55253
429.50,0.51675
430.00,0.48221
430.50,0.44844
431.00,0.41577
431.50,0.38435
432.00,0.35384
432.50,0.32401
433.00,0.29532
433.50,0.26978
434.00,0.24550
434.50,0.22404
435.00,0.20249
435.50,0.18426
436.00,0.16633
436.50,0.15110
437.00,0.13673
437.50,0.12433
438.00,0.11332
438.50,0.10341
439.00,0.09503
439.50,0.08702
440.00,0.08093
440.50,0.07467
441.00,0.06978
441.50,0.06443
442.00,0.06045
442.50,0.05678
443.00,0.05396
443.50,0.05141
444.00,0.04902
444.50,0.04683
445.00,0.04527
445.50,0.04340
446.00,0.04248
446.50,0.04052
447.00,0.04026
447.50,0.03812
448.00,0.03813
448.50,0.03620
449.00,0.03661
449.50,0.03498
450.00,0.03458
450.50,0.03362
451.00,0.03332
451.50,0.03359
452.00,0.03292
452.50,0.03328
453.00,0.03153
453.50,0.03198
454.00,0.03034
454.50,0.03168
455.00,0.03028
455.50,0.03108
456.00,0.03002
456.50,0.03011
457.00,0.03002
457.50,0.02970
458.00,0.03042
458.50,0.02941
459.00,0.03003
459.50,0.02902
460.00,0.02959
460.50,0.02906
461.00,0.02955
461.50,0.02931
462.00,0.02924
462.50,0.02893
463.00,0.02863
463.50,0.02884
464.00,0.02854
464.50,0.02889
465.00,0.02823
465.50,0.02850
466.00,0.02793
466.50,0.02832
467.00,0.02777
467.50,0.02815
468.00,0.02780
468.50,0.02798
469.00,0.02766
469.50,0.02754
470.00,0.02764
470.50,0.02744
471.00,0.02776
471.50,0.02743
472.00,0.02768
472.50,0.02706
473.00,0.02741
473.50,0.02736
474.00,0.02758
474.50,0.02727
475.00,0.02725
475.50,0.02714
476.00,0.02689
476.50,0.02671
477.00,0.02660
477.50,0.02682
478.00,0.02680
478.50,0.02668
479.00,0.02693
479.50,0.02623
480.00,0.02704
480.50,0.02629
481.00,0.02719
481.50,0.02588
482.00,0.02658
482.50,0.02584
483.00,0.02626
483.50,0.02593
484.00,0.02621
484.50,0.02663
485.00,0.02592
485.50,0.02612
486.00,0.02517
486.50,0.02621
487.00,0.02513
487.50,0.02659
488.00,0.02560
488.50,0.02696
489.00,0.02564
489.50,0.02659
490.00,0.02561
490.50,0.02618
491.00,0.02590
491.50,0.02585
492.00,0.02608
492.50,0.02492
493.00,0.02611
493.50,0.02492
494.00,0.02631
494.50,0.02467
495.00,0.02584
495.50,0.02464
496.00,0.02545
496.50,0.02518
497.00,0.02564
497.50,0.02618
498.00,0.02528
498.50,0.02595
499.00,0.02463
499.50,0.02590
500.00,0.02445
500.50,0.02548
501.00,0.02417
501.50,0.02513
502.00,0.02446
502.50,0.02504
503.00,0.02462
503.50,0.02448
504.00,0.02444
504.50,0.02388
505.00,0.02430
505.50,0.02382
506.00,0.02501
506.50,0.02420
507.00,0.02541
507.50,0.02406
508.00,0.02553
508.50,0.02355
509.00,0.02476
509.50,0.02350
510.00,0.02458
510.50,0.02369
511.00,0.02358
511.50,0.02400
512.00,0.02337
512.50,0.02421
513.00,0.02289
513.50,0.02437
514.00,0.02320
514.50,0.02406
515.00,0.02316
515.50,0.02381
516.00,0.02335
516.50,0.02328
517.00,0.02342
517.50,0.02321
518.00,0.02384
518.50,0.02294
519.00,0.02365
519.50,0.02296
520.00,0.02359
520.50,0.02309
521.00,0.02344
521.50,0.02381
522.00,0.02355
522.50,0.02372
523.00,0.02258
523.50,0.02352
524.00,0.02262
524.50,0.02375
525.00,0.02291
525.50,0.02356
526.00,0.02307
526.50,0.02321
527.00,0.02351
527.50,0.02292
528.00,0.02330
528.50,0.02201
529.00,0.02307
529.50,0.02226
530.00,0.02301
530.50,0.02232
531.00,0.02267
531.50,0.02252
532.00,0.02292
532.50,0.02287
533.00,0.02289
533.50,0.02247
534.00,0.02249
534.50,0.02250
535.00,0.02268
535.50,0.02299
536.00,0.02290
536.50,0.02271
537.00,0.02214
537.50,0.02246
538.00,0.02241
538.50,0.02227
539.00,0.02225
539.50,0.02214
540.00,0.02273
540.50,0.02249
541.00,0.02263
541.50,0.02238
542.00,0.02217
542.50,0.02237
543.00,0.02195
543.50,0.02241
544.00,0.02146
544.50,0.02233
545.00,0.02148
545.50,0.02270
546.00,0.02144
546.50,0.02226
547.00,0.02135
547.50,0.02170
548.00,0.02155
548.50,0.02105
549.00,0.02210
549.50,0.02135
550.00,0.02288
550.50,0.02190
551.00,0.02298
551.50,0.02186
552.00,0.02216
552.50,0.02134
553.00,0.02154
553.50,0.02158
554.00,0.02160
554.50,0.02211
555.00,0.02154
555.50,0.02232
556.00,0.02134
556.50,0.02205
557.00,0.02114
557.50,0.02208
558.00,0.02152
558.50,0.02205
559.00,0.02127
559.50,0.02158
560.00,0.02160
560.50,0.02149
561.00,0.02174
561.50,0.02110
562.00,0.02192
562.50,0.02114
563.00,0.02203
563.50,0.02114
564.00,0.02189
564.50,0.02115
565.00,0.02197
565.50,0.02139
566.00,0.02160
566.50,0.02121
567.00,0.02146
567.50,0.02129
568.00,0.02157
568.50,0.02148
569.00,0.02180
569.50,0.02139
570.00,0.02168
570.50,0.02115
571.00,0.02156
571.50,0.02109
572.00,0.02153
572.50,0.02113
573.00,0.02116
573.50,0.02107
574.00,0.02111
574.50,0.02157
575.00,0.02116
575.50,0.02169
576.00,0.02081
576.50,0.02164
577.00,0.02060
577.50,0.02142
578.00,0.02043
578.50,0.02099
579.00,0.02088
579.50,0.02085
580.00,0.02103
580.50,0.01997
581.00,0.02109
581.50,0.02020
582.00,0.02166
582.50,0.02008
583.00,0.02068
583.50,0.01981
584.00,0.02046
584.50,0.02031
585.00,0.01999
585.50,0.02031
586.00,0.01961
586.50,0.02028
587.00,0.01968
587.50,0.02028
588.00,0.02003
588.50,0.02019
589.00,0.02026
589.50,0.02024
590.00,0.02037
590.50,0.02026
591.00,0.01988
591.50,0.01989
592.00,0.01971
592.50,0.02010
593.00,0.02012
593.50,0.02070
594.00,0.02073
594.50,0.02082
595.00,0.02065
595.50,0.02037
596.00,0.02056
596.50,0.01997
597.00,0.02045
597.50,0.02008
598.00,0.02107
598.50,0.02038
599.00,0.02017
599.50,0.01950
600.00,0.01972
