"18min - RawData"
"≤®≥§(nm)","Œ¸ ’÷µ"
250.00,2.18839
250.50,2.36113
251.00,2.43814
251.50,2.13287
252.00,2.08841
252.50,2.03545
253.00,2.26320
253.50,2.06325
254.00,2.05449
254.50,2.08659
255.00,2.55559
255.50,2.73470
256.00,2.28793
256.50,2.08799
257.00,2.09347
257.50,2.18693
258.00,2.10812
258.50,2.14839
259.00,2.22143
259.50,2.30012
260.00,2.29401
260.50,2.20367
261.00,2.34815
261.50,2.44371
262.00,2.44724
262.50,2.45443
263.00,2.34221
263.50,2.51175
264.00,2.46753
264.50,2.77902
265.00,2.44832
265.50,2.52816
266.00,2.44057
266.50,2.57446
267.00,2.49849
267.50,2.55105
268.00,2.50271
268.50,2.53822
269.00,2.58766
269.50,2.69204
270.00,3.03646
270.50,2.89224
271.00,3.05183
271.50,2.81613
272.00,2.82143
272.50,2.76626
273.00,2.73492
273.50,2.75995
274.00,2.82122
274.50,2.94141
275.00,2.85289
275.50,2.78006
276.00,2.67488
276.50,2.69096
277.00,2.83524
277.50,2.80528
278.00,2.88443
278.50,2.76939
279.00,2.87775
279.50,2.83906
280.00,2.98102
280.50,3.07836
281.00,3.03193
281.50,2.95294
282.00,2.78593
282.50,2.79557
283.00,2.80813
283.50,2.88663
284.00,2.87795
284.50,2.97860
285.00,3.08569
285.50,3.47426
286.00,3.48577
286.50,3.24323
287.00,3.07278
287.50,3.00868
288.00,3.06565
288.50,3.13529
289.00,3.16118
289.50,3.15191
290.00,3.07417
290.50,3.01890
291.00,3.00852
291.50,3.07397
292.00,3.03562
292.50,3.04518
293.00,3.02557
293.50,3.05216
294.00,3.11741
294.50,3.07976
295.00,3.11692
295.50,3.02271
296.00,3.02607
296.50,3.03424
297.00,2.99330
297.50,2.96253
298.00,2.89780
298.50,2.92972
299.00,2.91103
299.50,2.95274
300.00,2.90720
300.50,2.87391
301.00,2.83136
301.50,2.85492
302.00,2.88798
302.50,2.93662
303.00,2.90516
303.50,2.91375
304.00,2.85626
304.50,2.83076
305.00,2.80193
305.50,2.82657
306.00,2.86410
306.50,2.86619
307.00,2.82183
307.50,2.80326
308.00,2.78407
308.50,2.77737
309.00,2.74256
309.50,2.70757
310.00,2.68495
310.50,2.65684
311.00,2.65187
311.50,2.61348
312.00,2.59715
312.50,2.55720
313.00,2.54188
313.50,2.52579
314.00,2.52239
314.50,2.52136
315.00,2.49314
315.50,2.45161
316.00,2.42301
316.50,2.40101
317.00,2.39230
317.50,2.36562
318.00,2.34335
318.50,2.32308
319.00,2.29981
319.50,2.29547
320.00,2.27489
320.50,2.26711
321.00,2.24278
321.50,2.23128
322.00,2.21179
322.50,2.19469
323.00,2.17782
323.50,2.16336
324.00,2.14528
324.50,2.12690
325.00,2.10850
325.50,2.10326
326.00,2.08429
326.50,2.06679
327.00,2.04482
327.50,2.03347
328.00,2.02158
328.50,2.00246
329.00,1.98803
329.50,1.97403
330.00,1.96009
330.50,1.94753
331.00,1.93267
331.50,1.92844
332.00,1.91941
332.50,1.91246
333.00,1.89853
333.50,1.89127
334.00,1.88514
334.50,1.88198
335.00,1.87605
335.50,1.87246
336.00,1.87377
336.50,1.87502
337.00,1.87618
337.50,1.87437
338.00,1.87661
338.50,1.87633
339.00,1.87786
339.50,1.87784
340.00,1.88059
340.50,1.88173
341.00,1.88059
341.50,1.88188
342.00,1.88118
342.50,1.88123
343.00,1.87818
343.50,1.87389
344.00,1.87403
344.50,1.86946
345.00,1.86966
345.50,1.86417
346.00,1.86033
346.50,1.85423
347.00,1.84887
347.50,1.84377
348.00,1.83970
348.50,1.83600
349.00,1.83248
349.50,1.82813
350.00,1.82339
350.50,1.82219
351.00,1.81780
351.50,1.81664
352.00,1.81074
352.50,1.80720
353.00,1.80143
353.50,1.79749
354.00,1.79000
354.50,1.78132
355.00,1.76964
355.50,1.75732
356.00,1.74359
356.50,1.72946
357.00,1.71459
357.50,1.69684
358.00,1.67656
358.50,1.65769
359.00,1.63442
359.50,1.61120
360.00,1.58442
360.50,1.56172
361.00,1.53626
361.50,1.51276
362.00,1.48596
362.50,1.46211
363.00,1.43667
363.50,1.41283
364.00,1.38911
364.50,1.36626
365.00,1.34609
365.50,1.32683
366.00,1.30815
366.50,1.28989
367.00,1.27396
367.50,1.26029
368.00,1.24806
368.50,1.23733
369.00,1.22931
369.50,1.22130
370.00,1.21524
370.50,1.20888
371.00,1.20536
371.50,1.20268
372.00,1.20261
372.50,1.20350
373.00,1.20681
373.50,1.21080
374.00,1.21600
374.50,1.22178
375.00,1.22875
375.50,1.23904
376.00,1.24937
376.50,1.26218
377.00,1.27408
377.50,1.28738
378.00,1.29933
378.50,1.31327
379.00,1.32550
379.50,1.33926
380.00,1.35073
380.50,1.36215
381.00,1.37073
381.50,1.37497
382.00,1.37811
382.50,1.37654
383.00,1.37455
383.50,1.36629
384.00,1.35784
384.50,1.34626
385.00,1.33204
385.50,1.31491
386.00,1.29458
386.50,1.27367
387.00,1.25090
387.50,1.22715
388.00,1.20221
388.50,1.17597
389.00,1.14833
389.50,1.12255
390.00,1.09589
390.50,1.07060
391.00,1.04425
391.50,1.02006
392.00,0.99662
392.50,0.97468
393.00,0.95314
393.50,0.93465
394.00,0.91690
394.50,0.90198
395.00,0.88847
395.50,0.87709
396.00,0.86883
396.50,0.86072
397.00,0.85571
397.50,0.85272
398.00,0.85190
398.50,0.85527
399.00,0.85905
399.50,0.86758
400.00,0.87806
400.50,0.89468
401.00,0.91290
401.50,0.93226
402.00,0.95288
402.50,0.97731
403.00,1.00526
403.50,1.03755
404.00,1.07047
404.50,1.10521
405.00,1.13980
405.50,1.18148
406.00,1.22359
406.50,1.26586
407.00,1.30343
407.50,1.34390
408.00,1.38250
408.50,1.42332
409.00,1.46115
409.50,1.49855
410.00,1.53179
410.50,1.56276
411.00,1.58950
411.50,1.61102
412.00,1.62462
412.50,1.63017
413.00,1.63853
413.50,1.65104
414.00,1.66347
414.50,1.66530
415.00,1.66075
415.50,1.65697
416.00,1.65247
416.50,1.64533
417.00,1.63260
417.50,1.61692
418.00,1.59526
418.50,1.57038
419.00,1.53892
419.50,1.50323
420.00,1.46878
420.50,1.44019
421.00,1.40784
421.50,1.36732
422.00,1.32140
422.50,1.27386
423.00,1.22698
423.50,1.17652
424.00,1.12699
424.50,1.07504
425.00,1.02259
425.50,0.96632
426.00,0.90828
426.50,0.84676
427.00,0.79194
427.50,0.74088
428.00,0.69317
428.50,0.64231
429.00,0.59321
429.50,0.54752
430.00,0.50617
430.50,0.46862
431.00,0.43399
431.50,0.40380
432.00,0.37285
432.50,0.34246
433.00,0.31329
433.50,0.28888
434.00,0.26503
434.50,0.24118
435.00,0.21916
435.50,0.20333
436.00,0.18924
436.50,0.17618
437.00,0.16376
437.50,0.15547
438.00,0.14887
438.50,0.14325
439.00,0.13745
439.50,0.13281
440.00,0.12615
440.50,0.11824
441.00,0.10833
441.50,0.10004
442.00,0.09380
442.50,0.09172
443.00,0.09085
443.50,0.09227
444.00,0.09316
444.50,0.09639
445.00,0.09825
445.50,0.10011
446.00,0.09881
446.50,0.09577
447.00,0.09335
447.50,0.09213
448.00,0.09265
448.50,0.09056
449.00,0.08912
449.50,0.08578
450.00,0.08340
450.50,0.07918
451.00,0.07787
451.50,0.07737
452.00,0.07842
452.50,0.07897
453.00,0.07833
453.50,0.07758
454.00,0.07728
454.50,0.07967
455.00,0.08116
455.50,0.08155
456.00,0.08071
456.50,0.08076
457.00,0.08086
457.50,0.07949
458.00,0.07991
458.50,0.08135
459.00,0.08101
459.50,0.07591
460.00,0.07003
460.50,0.06862
461.00,0.07016
461.50,0.07326
462.00,0.07160
462.50,0.06890
463.00,0.06463
463.50,0.06590
464.00,0.06710
464.50,0.06975
465.00,0.06795
465.50,0.06700
466.00,0.06369
466.50,0.06140
467.00,0.05998
467.50,0.05969
468.00,0.06053
468.50,0.05940
469.00,0.05715
469.50,0.05162
470.00,0.04906
470.50,0.04750
471.00,0.05065
471.50,0.05325
472.00,0.05519
472.50,0.05380
473.00,0.05102
473.50,0.04779
474.00,0.04878
474.50,0.05382
475.00,0.05690
475.50,0.05504
476.00,0.04599
476.50,0.03771
477.00,0.03659
477.50,0.04450
478.00,0.05371
478.50,0.05688
479.00,0.05766
479.50,0.06305
480.00,0.06648
480.50,0.06336
481.00,0.05942
481.50,0.06097
482.00,0.06435
482.50,0.06306
483.00,0.05807
483.50,0.05391
484.00,0.04388
484.50,0.02798
485.00,0.02352
485.50,0.03748
486.00,0.05654
486.50,0.06306
487.00,0.05922
487.50,0.06143
488.00,0.06377
488.50,0.06442
489.00,0.06313
489.50,0.06562
490.00,0.06639
490.50,0.06520
491.00,0.06379
491.50,0.06627
492.00,0.06946
492.50,0.06902
493.00,0.06951
493.50,0.07083
494.00,0.07329
494.50,0.07009
495.00,0.06779
495.50,0.06415
496.00,0.06530
496.50,0.06490
497.00,0.06557
497.50,0.06324
498.00,0.06295
498.50,0.06520
499.00,0.04994
499.50,0.03037
500.00,0.00963
500.50,0.00724
501.00,0.00712
501.50,0.00845
502.00,0.00784
502.50,0.00869
503.00,0.00809
503.50,0.00858
504.00,0.00821
504.50,0.00864
505.00,0.00872
505.50,0.00928
506.00,0.00946
506.50,0.00951
507.00,0.00963
507.50,0.00981
508.00,0.01040
508.50,0.00997
509.00,0.00940
509.50,0.00862
510.00,0.00827
510.50,0.00766
511.00,0.00684
511.50,0.00721
512.00,0.00683
512.50,0.00761
513.00,0.00663
513.50,0.00760
514.00,0.00755
514.50,0.00773
515.00,0.00790
515.50,0.00859
516.00,0.00965
516.50,0.00880
517.00,0.00881
517.50,0.00796
518.00,0.00925
518.50,0.00809
519.00,0.00863
519.50,0.00738
520.00,0.00940
520.50,0.00860
521.00,0.00771
521.50,0.00628
522.00,0.00535
522.50,0.00600
523.00,0.00458
523.50,0.00598
524.00,0.00549
524.50,0.00640
525.00,0.00628
525.50,0.00751
526.00,0.00803
526.50,0.00759
527.00,0.00770
527.50,0.00758
528.00,0.00814
528.50,0.00685
529.00,0.00709
529.50,0.00705
530.00,0.00871
530.50,0.00852
531.00,0.00852
531.50,0.00743
532.00,0.00722
532.50,0.00797
533.00,0.00862
533.50,0.00813
534.00,0.00756
534.50,0.00762
535.00,0.00850
535.50,0.00776
536.00,0.00767
536.50,0.00745
537.00,0.00798
537.50,0.00712
538.00,0.00687
538.50,0.00655
539.00,0.00672
539.50,0.00585
540.00,0.00545
540.50,0.00554
541.00,0.00567
541.50,0.00549
542.00,0.00489
542.50,0.00543
543.00,0.00533
543.50,0.00556
544.00,0.00509
544.50,0.00546
545.00,0.00580
545.50,0.00627
546.00,0.00650
546.50,0.00630
547.00,0.00666
547.50,0.00684
548.00,0.00767
548.50,0.00715
549.00,0.00776
549.50,0.00788
550.00,0.00849
550.50,0.00777
551.00,0.00695
551.50,0.00709
552.00,0.00611
552.50,0.00597
553.00,0.00405
553.50,0.00563
554.00,0.00482
554.50,0.00620
555.00,0.00460
555.50,0.00647
556.00,0.00573
556.50,0.00618
557.00,0.00532
557.50,0.00682
558.00,0.00774
558.50,0.00754
559.00,0.00695
559.50,0.00626
560.00,0.00702
560.50,0.00638
561.00,0.00771
561.50,0.00742
562.00,0.00844
562.50,0.00701
563.00,0.00741
563.50,0.00681
564.00,0.00727
564.50,0.00607
565.00,0.00592
565.50,0.00584
566.00,0.00606
566.50,0.00557
567.00,0.00498
567.50,0.00561
568.00,0.00617
568.50,0.00650
569.00,0.00633
569.50,0.00610
570.00,0.00650
570.50,0.00643
571.00,0.00758
571.50,0.00741
572.00,0.00827
572.50,0.00745
573.00,0.00835
573.50,0.00743
574.00,0.00781
574.50,0.00737
575.00,0.00713
575.50,0.00643
576.00,0.00522
576.50,0.00612
577.00,0.00472
577.50,0.00516
578.00,0.00325
578.50,0.00538
579.00,0.00483
579.50,0.00567
580.00,0.00477
580.50,0.00603
581.00,0.00666
581.50,0.00601
582.00,0.00594
582.50,0.00590
583.00,0.00766
583.50,0.00640
584.00,0.00655
584.50,0.00545
585.00,0.00655
585.50,0.00540
586.00,0.00555
586.50,0.00504
587.00,0.00516
587.50,0.00424
588.00,0.00545
588.50,0.00595
589.00,0.00529
589.50,0.00421
590.00,0.00363
590.50,0.00638
591.00,0.00017
591.50,0.00067
592.00,-0.00040
592.50,0.00627
593.00,0.00734
593.50,0.00735
594.00,0.00721
594.50,0.00674
595.00,0.00889
595.50,0.00855
596.00,0.00862
596.50,0.00715
597.00,0.00772
597.50,0.00808
598.00,0.00737
598.50,0.00778
599.00,0.01645
599.50,0.02598
600.00,0.03468
