"17 - RawData"
"≤®≥§(nm)","Œ¸ ’÷µ"
300.00,0.86792
300.50,0.86457
301.00,0.86742
301.50,0.87077
302.00,0.87626
302.50,0.87875
303.00,0.88506
303.50,0.89296
304.00,0.90286
304.50,0.91513
305.00,0.92853
305.50,0.94233
306.00,0.95757
306.50,0.97518
307.00,0.99341
307.50,1.01512
308.00,1.04173
308.50,1.07148
309.00,1.10119
309.50,1.13234
310.00,1.16244
310.50,1.19195
311.00,1.21780
311.50,1.24451
312.00,1.26559
312.50,1.28039
313.00,1.28275
313.50,1.27242
314.00,1.25116
314.50,1.21749
315.00,1.17987
315.50,1.13509
316.00,1.08886
316.50,1.03624
317.00,0.98493
317.50,0.93593
318.00,0.89006
318.50,0.84761
319.00,0.80901
319.50,0.77655
320.00,0.74764
320.50,0.72428
321.00,0.70330
321.50,0.68632
322.00,0.67142
322.50,0.65913
323.00,0.64892
323.50,0.64091
324.00,0.63427
324.50,0.62851
325.00,0.62106
325.50,0.61605
326.00,0.61053
326.50,0.60804
327.00,0.60365
327.50,0.60206
328.00,0.59886
328.50,0.59783
329.00,0.59424
329.50,0.59112
330.00,0.58713
330.50,0.58429
331.00,0.58338
331.50,0.58127
332.00,0.58021
332.50,0.57736
333.00,0.57652
333.50,0.57497
334.00,0.57307
334.50,0.57046
335.00,0.56870
335.50,0.56709
336.00,0.56493
336.50,0.56265
337.00,0.56145
337.50,0.56074
338.00,0.55863
338.50,0.55580
339.00,0.55409
339.50,0.55310
340.00,0.55291
340.50,0.54961
341.00,0.54818
341.50,0.54604
342.00,0.54557
342.50,0.54252
343.00,0.54035
343.50,0.53867
344.00,0.53691
344.50,0.53427
345.00,0.53179
345.50,0.53001
346.00,0.52734
346.50,0.52415
347.00,0.52102
347.50,0.51844
348.00,0.51579
348.50,0.51353
349.00,0.51099
349.50,0.50885
350.00,0.50500
350.50,0.50123
351.00,0.49749
351.50,0.49499
352.00,0.49213
352.50,0.48970
353.00,0.48614
353.50,0.48351
354.00,0.48016
354.50,0.47759
355.00,0.47470
355.50,0.47181
356.00,0.46808
356.50,0.46499
357.00,0.46131
357.50,0.45880
358.00,0.45594
358.50,0.45300
359.00,0.45036
359.50,0.44799
360.00,0.44562
360.50,0.44246
361.00,0.43889
361.50,0.43655
362.00,0.43407
362.50,0.43249
363.00,0.42997
363.50,0.42737
364.00,0.42495
364.50,0.42223
365.00,0.41996
365.50,0.41760
366.00,0.41576
366.50,0.41451
367.00,0.41297
367.50,0.41117
368.00,0.40968
368.50,0.40779
369.00,0.40650
369.50,0.40483
370.00,0.40334
370.50,0.40153
371.00,0.40066
371.50,0.39973
372.00,0.39910
372.50,0.39794
373.00,0.39674
373.50,0.39607
374.00,0.39487
374.50,0.39412
375.00,0.39228
375.50,0.39158
376.00,0.38990
376.50,0.39008
377.00,0.38887
377.50,0.38843
378.00,0.38692
378.50,0.38666
379.00,0.38597
379.50,0.38585
380.00,0.38514
380.50,0.38496
381.00,0.38404
381.50,0.38260
382.00,0.38166
382.50,0.38018
383.00,0.37998
383.50,0.37867
384.00,0.37848
384.50,0.37661
385.00,0.37580
385.50,0.37326
386.00,0.37264
386.50,0.37043
387.00,0.37029
387.50,0.36828
388.00,0.36696
388.50,0.36530
389.00,0.36343
389.50,0.36176
390.00,0.35862
390.50,0.35653
391.00,0.35372
391.50,0.35168
392.00,0.34909
392.50,0.34715
393.00,0.34435
393.50,0.34165
394.00,0.33873
394.50,0.33595
395.00,0.33306
395.50,0.33004
396.00,0.32787
396.50,0.32535
397.00,0.32235
397.50,0.31932
398.00,0.31631
398.50,0.31439
399.00,0.31203
399.50,0.30988
400.00,0.30741
400.50,0.30508
401.00,0.30348
401.50,0.30127
402.00,0.29983
402.50,0.29744
403.00,0.29665
403.50,0.29473
404.00,0.29432
404.50,0.29263
405.00,0.29252
405.50,0.29103
406.00,0.29053
406.50,0.28923
407.00,0.28913
407.50,0.28940
408.00,0.28963
408.50,0.28977
409.00,0.28961
409.50,0.28975
410.00,0.29018
410.50,0.29041
411.00,0.29105
411.50,0.29173
412.00,0.29188
412.50,0.29249
413.00,0.29240
413.50,0.29339
414.00,0.29327
414.50,0.29409
415.00,0.29336
415.50,0.29326
416.00,0.29212
416.50,0.29125
417.00,0.29044
417.50,0.28925
418.00,0.28868
418.50,0.28693
419.00,0.28555
419.50,0.28394
420.00,0.28234
420.50,0.28020
421.00,0.27784
421.50,0.27518
422.00,0.27298
422.50,0.27019
423.00,0.26819
423.50,0.26535
424.00,0.26316
424.50,0.26058
425.00,0.25858
425.50,0.25673
426.00,0.25462
426.50,0.25328
427.00,0.25184
427.50,0.25118
428.00,0.25015
428.50,0.24957
429.00,0.24869
429.50,0.24897
430.00,0.24869
430.50,0.24987
431.00,0.25016
431.50,0.25128
432.00,0.25175
432.50,0.25318
433.00,0.25488
433.50,0.25686
434.00,0.25896
434.50,0.26096
435.00,0.26320
435.50,0.26543
436.00,0.26789
436.50,0.27031
437.00,0.27247
437.50,0.27454
438.00,0.27645
438.50,0.27807
439.00,0.27909
439.50,0.28057
440.00,0.28138
440.50,0.28236
441.00,0.28224
441.50,0.28245
442.00,0.28169
442.50,0.28087
443.00,0.27916
443.50,0.27798
444.00,0.27606
444.50,0.27380
445.00,0.27136
445.50,0.26764
446.00,0.26459
446.50,0.25989
447.00,0.25604
447.50,0.25066
448.00,0.24582
448.50,0.23984
449.00,0.23413
449.50,0.22740
450.00,0.22091
450.50,0.21360
451.00,0.20634
451.50,0.19834
452.00,0.19040
452.50,0.18281
453.00,0.17495
453.50,0.16727
454.00,0.15823
454.50,0.14992
455.00,0.14068
455.50,0.13267
456.00,0.12391
456.50,0.11655
457.00,0.10835
457.50,0.10167
458.00,0.09391
458.50,0.08775
459.00,0.08046
459.50,0.07492
460.00,0.06882
460.50,0.06461
461.00,0.05954
461.50,0.05561
462.00,0.05125
462.50,0.04827
463.00,0.04538
463.50,0.04247
464.00,0.03990
464.50,0.03721
465.00,0.03596
465.50,0.03355
466.00,0.03263
466.50,0.03044
467.00,0.03013
467.50,0.02819
468.00,0.02818
468.50,0.02664
469.00,0.02657
469.50,0.02502
470.00,0.02466
470.50,0.02408
471.00,0.02384
471.50,0.02379
472.00,0.02315
472.50,0.02288
473.00,0.02201
473.50,0.02190
474.00,0.02127
474.50,0.02152
475.00,0.02118
475.50,0.02117
476.00,0.02043
476.50,0.01972
477.00,0.01955
477.50,0.01955
478.00,0.01995
478.50,0.01962
479.00,0.01968
479.50,0.01919
480.00,0.01956
480.50,0.01921
481.00,0.01968
481.50,0.01936
482.00,0.01939
482.50,0.01912
483.00,0.01894
483.50,0.01908
484.00,0.01902
484.50,0.01922
485.00,0.01875
485.50,0.01897
486.00,0.01887
486.50,0.01917
487.00,0.01836
487.50,0.01821
488.00,0.01834
488.50,0.01870
489.00,0.01896
489.50,0.01875
490.00,0.01931
490.50,0.01907
491.00,0.01918
491.50,0.01868
492.00,0.01825
492.50,0.01851
493.00,0.01815
493.50,0.01884
494.00,0.01828
494.50,0.01871
495.00,0.01853
495.50,0.01879
496.00,0.01845
496.50,0.01833
497.00,0.01856
497.50,0.01827
498.00,0.01863
498.50,0.01780
499.00,0.01868
499.50,0.01815
500.00,0.01875
500.50,0.01815
501.00,0.01850
501.50,0.01847
502.00,0.01852
502.50,0.01837
503.00,0.01790
503.50,0.01829
504.00,0.01791
504.50,0.01860
505.00,0.01758
505.50,0.01835
506.00,0.01757
506.50,0.01835
507.00,0.01756
507.50,0.01800
508.00,0.01805
508.50,0.01802
509.00,0.01826
509.50,0.01770
510.00,0.01846
510.50,0.01780
511.00,0.01869
511.50,0.01797
512.00,0.01861
512.50,0.01777
513.00,0.01822
513.50,0.01765
514.00,0.01831
514.50,0.01790
515.00,0.01813
515.50,0.01790
516.00,0.01819
516.50,0.01873
517.00,0.01861
517.50,0.01860
518.00,0.01793
518.50,0.01800
519.00,0.01789
519.50,0.01818
520.00,0.01836
520.50,0.01827
521.00,0.01833
521.50,0.01796
522.00,0.01839
522.50,0.01834
523.00,0.01874
523.50,0.01853
524.00,0.01859
524.50,0.01837
525.00,0.01815
525.50,0.01777
526.00,0.01764
526.50,0.01792
527.00,0.01794
527.50,0.01819
528.00,0.01757
528.50,0.01795
529.00,0.01737
529.50,0.01810
530.00,0.01771
530.50,0.01741
531.00,0.01740
531.50,0.01714
532.00,0.01793
532.50,0.01707
533.00,0.01729
533.50,0.01692
534.00,0.01734
534.50,0.01713
535.00,0.01764
535.50,0.01755
536.00,0.01773
536.50,0.01729
537.00,0.01742
537.50,0.01793
538.00,0.01792
538.50,0.01813
539.00,0.01739
539.50,0.01774
540.00,0.01739
540.50,0.01808
541.00,0.01764
541.50,0.01765
542.00,0.01741
542.50,0.01769
543.00,0.01812
543.50,0.01766
544.00,0.01763
544.50,0.01721
545.00,0.01771
545.50,0.01777
546.00,0.01776
546.50,0.01770
547.00,0.01755
547.50,0.01802
548.00,0.01766
548.50,0.01787
549.00,0.01716
549.50,0.01785
550.00,0.01809
