"cds01 - RawData"
"≤®≥§(nm)","Œ¸ ’÷µ"
250.00,0.25809
250.50,0.26072
251.00,0.26288
251.50,0.26002
252.00,0.25222
252.50,0.24958
253.00,0.24385
253.50,0.24663
254.00,0.24175
254.50,0.24122
255.00,0.23860
255.50,0.23645
256.00,0.23193
256.50,0.23090
257.00,0.23127
257.50,0.22912
258.00,0.22736
258.50,0.22332
259.00,0.22288
259.50,0.22328
260.00,0.22238
260.50,0.22037
261.00,0.21230
261.50,0.20787
262.00,0.21123
262.50,0.20571
263.00,0.20242
263.50,0.19844
264.00,0.20101
264.50,0.19898
265.00,0.19425
265.50,0.19189
266.00,0.18982
266.50,0.18834
267.00,0.18641
267.50,0.18729
268.00,0.18315
268.50,0.18191
269.00,0.18067
269.50,0.17904
270.00,0.17747
270.50,0.17538
271.00,0.17271
271.50,0.17043
272.00,0.16909
272.50,0.16881
273.00,0.16573
273.50,0.16331
274.00,0.16239
274.50,0.16138
275.00,0.15937
275.50,0.15915
276.00,0.16055
276.50,0.16026
277.00,0.16006
277.50,0.15744
278.00,0.15601
278.50,0.15219
279.00,0.15000
279.50,0.14823
280.00,0.14978
280.50,0.14947
281.00,0.14926
281.50,0.14703
282.00,0.14574
282.50,0.14342
283.00,0.14030
283.50,0.13877
284.00,0.13887
284.50,0.13800
285.00,0.13773
285.50,0.13556
286.00,0.13718
286.50,0.13453
287.00,0.13427
287.50,0.12900
288.00,0.12941
288.50,0.12760
289.00,0.12988
289.50,0.12657
290.00,0.12693
290.50,0.12490
291.00,0.12432
291.50,0.12143
292.00,0.12068
292.50,0.12097
293.00,0.12149
293.50,0.11990
294.00,0.11912
294.50,0.11625
295.00,0.11564
295.50,0.11385
296.00,0.11544
296.50,0.11487
297.00,0.11534
297.50,0.11494
298.00,0.11375
298.50,0.11347
299.00,0.11091
299.50,0.11172
300.00,0.11029
300.50,0.11200
301.00,0.11121
301.50,0.11367
302.00,0.11401
302.50,0.11401
303.00,0.11316
303.50,0.11331
304.00,0.11409
304.50,0.11466
305.00,0.11623
305.50,0.11946
306.00,0.12085
306.50,0.12228
307.00,0.12228
307.50,0.12338
308.00,0.12459
308.50,0.12566
309.00,0.12725
309.50,0.12883
310.00,0.13123
310.50,0.13428
311.00,0.13589
311.50,0.13733
312.00,0.13914
312.50,0.13970
313.00,0.14142
313.50,0.13893
314.00,0.13828
314.50,0.13567
315.00,0.13461
315.50,0.13193
316.00,0.12960
316.50,0.12661
317.00,0.12397
317.50,0.12019
318.00,0.11725
318.50,0.11263
319.00,0.10868
319.50,0.10584
320.00,0.10367
320.50,0.10322
321.00,0.10020
321.50,0.09923
322.00,0.09669
322.50,0.09584
323.00,0.09402
323.50,0.09286
324.00,0.09107
324.50,0.08958
325.00,0.08854
325.50,0.08870
326.00,0.08708
326.50,0.08636
327.00,0.08471
327.50,0.08557
328.00,0.08516
328.50,0.08437
329.00,0.08274
329.50,0.08190
330.00,0.08091
330.50,0.07994
331.00,0.07868
331.50,0.07877
332.00,0.07926
332.50,0.07938
333.00,0.07877
333.50,0.07738
334.00,0.07628
334.50,0.07521
335.00,0.07518
335.50,0.07394
336.00,0.07437
336.50,0.07393
337.00,0.07395
337.50,0.07303
338.00,0.07252
338.50,0.07227
339.00,0.07109
339.50,0.07039
340.00,0.06939
340.50,0.06874
341.00,0.06835
341.50,0.06833
342.00,0.06903
342.50,0.06816
343.00,0.06742
343.50,0.06658
344.00,0.06658
344.50,0.06649
345.00,0.06553
345.50,0.06520
346.00,0.06424
346.50,0.06425
347.00,0.06358
347.50,0.06402
348.00,0.06369
348.50,0.06288
349.00,0.06231
349.50,0.06213
350.00,0.06286
350.50,0.06221
351.00,0.06209
351.50,0.06144
352.00,0.06135
352.50,0.06130
353.00,0.06111
353.50,0.06118
354.00,0.06147
354.50,0.06155
355.00,0.06168
355.50,0.06104
356.00,0.06050
356.50,0.06053
357.00,0.06076
357.50,0.06105
358.00,0.06111
358.50,0.06043
359.00,0.06054
359.50,0.05979
360.00,0.06102
360.50,0.06133
361.00,0.06228
361.50,0.06174
362.00,0.06193
362.50,0.06167
363.00,0.06166
363.50,0.06164
364.00,0.06166
364.50,0.06155
365.00,0.06066
365.50,0.06006
366.00,0.05961
366.50,0.05964
367.00,0.05954
367.50,0.05957
368.00,0.05951
368.50,0.05932
369.00,0.05885
369.50,0.05870
370.00,0.05882
370.50,0.05867
371.00,0.05811
371.50,0.05757
372.00,0.05760
372.50,0.05721
373.00,0.05718
373.50,0.05609
374.00,0.05639
374.50,0.05555
375.00,0.05556
375.50,0.05484
376.00,0.05368
376.50,0.05347
377.00,0.05222
377.50,0.05283
378.00,0.05206
378.50,0.05199
379.00,0.05095
379.50,0.05047
380.00,0.05035
380.50,0.04991
381.00,0.04997
381.50,0.04872
382.00,0.04905
382.50,0.04769
383.00,0.04895
383.50,0.04805
384.00,0.04832
384.50,0.04697
385.00,0.04671
385.50,0.04664
386.00,0.04583
386.50,0.04591
387.00,0.04474
387.50,0.04502
388.00,0.04467
388.50,0.04497
389.00,0.04460
389.50,0.04444
390.00,0.04388
390.50,0.04506
391.00,0.04457
391.50,0.04581
392.00,0.04452
392.50,0.04542
393.00,0.04453
393.50,0.04500
394.00,0.04470
394.50,0.04463
395.00,0.04525
395.50,0.04479
396.00,0.04580
396.50,0.04482
397.00,0.04578
397.50,0.04519
398.00,0.04532
398.50,0.04450
399.00,0.04425
399.50,0.04427
400.00,0.04396
400.50,0.04442
401.00,0.04463
401.50,0.04440
402.00,0.04435
402.50,0.04299
403.00,0.04272
403.50,0.04155
404.00,0.04145
404.50,0.04145
405.00,0.04078
405.50,0.04119
406.00,0.04038
406.50,0.04060
407.00,0.03966
407.50,0.03966
408.00,0.03907
408.50,0.03937
409.00,0.03899
409.50,0.03873
410.00,0.03847
410.50,0.03801
411.00,0.03847
411.50,0.03760
412.00,0.03808
412.50,0.03686
413.00,0.03726
413.50,0.03714
414.00,0.03807
414.50,0.03829
415.00,0.03842
415.50,0.03865
416.00,0.03871
416.50,0.03955
417.00,0.03950
417.50,0.04088
418.00,0.04055
418.50,0.04209
419.00,0.04186
419.50,0.04320
420.00,0.04311
420.50,0.04350
421.00,0.04298
421.50,0.04394
422.00,0.04456
422.50,0.04606
423.00,0.04570
423.50,0.04663
424.00,0.04637
424.50,0.04690
425.00,0.04685
425.50,0.04716
426.00,0.04781
426.50,0.04832
427.00,0.04857
427.50,0.04860
428.00,0.04827
428.50,0.04822
429.00,0.04745
429.50,0.04683
430.00,0.04674
430.50,0.04626
431.00,0.04614
431.50,0.04491
432.00,0.04481
432.50,0.04389
433.00,0.04337
433.50,0.04199
434.00,0.04087
434.50,0.03995
435.00,0.03870
435.50,0.03763
436.00,0.03610
436.50,0.03557
437.00,0.03445
437.50,0.03373
438.00,0.03210
438.50,0.03098
439.00,0.02925
439.50,0.02785
440.00,0.02631
440.50,0.02479
441.00,0.02356
441.50,0.02171
442.00,0.02105
442.50,0.01945
443.00,0.01898
443.50,0.01709
444.00,0.01633
444.50,0.01509
445.00,0.01435
445.50,0.01342
446.00,0.01216
446.50,0.01132
447.00,0.01028
447.50,0.01003
448.00,0.00926
448.50,0.00883
449.00,0.00815
449.50,0.00770
450.00,0.00736
450.50,0.00686
451.00,0.00694
451.50,0.00620
452.00,0.00632
452.50,0.00534
453.00,0.00563
453.50,0.00459
454.00,0.00489
454.50,0.00430
455.00,0.00477
455.50,0.00472
456.00,0.00460
456.50,0.00455
457.00,0.00392
457.50,0.00419
458.00,0.00353
458.50,0.00423
459.00,0.00358
459.50,0.00391
460.00,0.00331
460.50,0.00362
461.00,0.00400
461.50,0.00366
462.00,0.00433
462.50,0.00336
463.00,0.00409
463.50,0.00301
464.00,0.00359
464.50,0.00321
465.00,0.00392
465.50,0.00366
466.00,0.00362
466.50,0.00350
467.00,0.00339
467.50,0.00385
468.00,0.00325
468.50,0.00374
469.00,0.00283
469.50,0.00372
470.00,0.00327
470.50,0.00413
471.00,0.00363
471.50,0.00374
472.00,0.00361
472.50,0.00346
473.00,0.00403
473.50,0.00329
474.00,0.00391
474.50,0.00279
475.00,0.00365
475.50,0.00297
476.00,0.00404
476.50,0.00354
477.00,0.00367
477.50,0.00353
478.00,0.00340
478.50,0.00373
479.00,0.00288
479.50,0.00346
480.00,0.00307
480.50,0.00390
481.00,0.00351
481.50,0.00382
482.00,0.00362
482.50,0.00376
483.00,0.00390
483.50,0.00326
484.00,0.00366
484.50,0.00285
485.00,0.00357
485.50,0.00284
486.00,0.00367
486.50,0.00362
487.00,0.00402
487.50,0.00362
488.00,0.00338
488.50,0.00381
489.00,0.00346
489.50,0.00378
490.00,0.00298
490.50,0.00408
491.00,0.00344
491.50,0.00418
492.00,0.00345
492.50,0.00434
493.00,0.00416
493.50,0.00451
494.00,0.00431
494.50,0.00363
495.00,0.00373
495.50,0.00302
496.00,0.00371
496.50,0.00312
497.00,0.00394
497.50,0.00342
498.00,0.00364
498.50,0.00338
499.00,0.00377
499.50,0.00374
500.00,0.00359
